OOIBase32 Version 1.0.0.8 Data File
++++++++++++++++++++++++++++++++++++
Date: Friday, January 04, 1980, 01:52:15
User: Valued Ocean Optics Customer
Spectrometer Serial Number: Unknown
Spectrometer Channel: Master
Integration Time (msec): 5
Spectra Averaged: 1
Boxcar Smoothing: 0
Correct for Electrical Dark: Disabled
Time Normalized: Disabled
Dual-beam Reference: Disabled
Reference Channel: Master
>>>>>Begin Spectral Data<<<<<
179.00	0.0000
179.38	0.0000
179.75	57.0000
180.13	51.0000
180.51	56.0000
180.88	61.0000
181.26	59.0000
181.64	59.0000
182.02	58.0000
182.39	61.0000
182.77	57.0000
183.15	59.0000
183.52	60.0000
183.90	62.0000
184.28	54.0000
184.65	59.0000
185.03	62.0000
185.41	59.0000
185.78	58.0000
186.16	57.0000
186.53	51.0000
186.91	52.0000
187.29	59.0000
187.66	59.0000
188.04	60.0000
188.42	56.0000
188.79	60.0000
189.17	57.0000
189.55	54.0000
189.92	56.0000
190.30	56.0000
190.67	57.0000
191.05	55.0000
191.43	52.0000
191.80	55.0000
192.18	55.0000
192.56	54.0000
192.93	55.0000
193.31	58.0000
193.68	56.0000
194.06	60.0000
194.44	57.0000
194.81	55.0000
195.19	59.0000
195.56	58.0000
195.94	59.0000
196.32	56.0000
196.69	57.0000
197.07	58.0000
197.44	54.0000
197.82	55.0000
198.19	56.0000
198.57	57.0000
198.95	55.0000
199.32	57.0000
199.70	59.0000
200.07	56.0000
200.45	53.0000
200.82	58.0000
201.20	60.0000
201.57	58.0000
201.95	58.0000
202.33	65.0000
202.70	56.0000
203.08	56.0000
203.45	59.0000
203.83	52.0000
204.20	58.0000
204.58	56.0000
204.95	57.0000
205.33	58.0000
205.70	58.0000
206.08	56.0000
206.45	56.0000
206.83	59.0000
207.20	58.0000
207.58	54.0000
207.95	55.0000
208.33	62.0000
208.70	61.0000
209.08	60.0000
209.45	58.0000
209.83	54.0000
210.20	57.0000
210.58	61.0000
210.95	58.0000
211.33	57.0000
211.70	59.0000
212.08	59.0000
212.45	56.0000
212.83	55.0000
213.20	62.0000
213.58	62.0000
213.95	62.0000
214.33	58.0000
214.70	57.0000
215.07	58.0000
215.45	58.0000
215.82	59.0000
216.20	55.0000
216.57	57.0000
216.95	61.0000
217.32	59.0000
217.70	59.0000
218.07	55.0000
218.44	58.0000
218.82	56.0000
219.19	60.0000
219.57	57.0000
219.94	60.0000
220.32	55.0000
220.69	57.0000
221.06	54.0000
221.44	58.0000
221.81	59.0000
222.19	58.0000
222.56	62.0000
222.93	58.0000
223.31	60.0000
223.68	59.0000
224.06	56.0000
224.43	60.0000
224.80	57.0000
225.18	59.0000
225.55	59.0000
225.92	59.0000
226.30	60.0000
226.67	58.0000
227.05	56.0000
227.42	59.0000
227.79	55.0000
228.17	57.0000
228.54	61.0000
228.91	59.0000
229.29	58.0000
229.66	55.0000
230.03	56.0000
230.41	56.0000
230.78	57.0000
231.15	56.0000
231.53	59.0000
231.90	53.0000
232.27	54.0000
232.65	57.0000
233.02	55.0000
233.39	60.0000
233.77	58.0000
234.14	59.0000
234.51	57.0000
234.89	54.0000
235.26	62.0000
235.63	60.0000
236.01	56.0000
236.38	59.0000
236.75	61.0000
237.12	59.0000
237.50	58.0000
237.87	57.0000
238.24	56.0000
238.62	57.0000
238.99	62.0000
239.36	56.0000
239.73	62.0000
240.11	59.0000
240.48	62.0000
240.85	57.0000
241.23	58.0000
241.60	57.0000
241.97	63.0000
242.34	62.0000
242.72	57.0000
243.09	54.0000
243.46	57.0000
243.83	56.0000
244.21	61.0000
244.58	59.0000
244.95	53.0000
245.32	58.0000
245.70	53.0000
246.07	56.0000
246.44	59.0000
246.81	55.0000
247.18	54.0000
247.56	58.0000
247.93	58.0000
248.30	56.0000
248.67	56.0000
249.04	56.0000
249.42	56.0000
249.79	60.0000
250.16	58.0000
250.53	56.0000
250.90	55.0000
251.28	54.0000
251.65	54.0000
252.02	57.0000
252.39	58.0000
252.76	56.0000
253.14	61.0000
253.51	61.0000
253.88	61.0000
254.25	58.0000
254.62	60.0000
254.99	57.0000
255.37	57.0000
255.74	56.0000
256.11	51.0000
256.48	54.0000
256.85	58.0000
257.22	56.0000
257.59	56.0000
257.97	56.0000
258.34	58.0000
258.71	55.0000
259.08	58.0000
259.45	56.0000
259.82	59.0000
260.19	56.0000
260.56	54.0000
260.94	61.0000
261.31	60.0000
261.68	62.0000
262.05	62.0000
262.42	55.0000
262.79	64.0000
263.16	60.0000
263.53	59.0000
263.90	63.0000
264.28	61.0000
264.65	52.0000
265.02	56.0000
265.39	56.0000
265.76	55.0000
266.13	57.0000
266.50	57.0000
266.87	58.0000
267.24	59.0000
267.61	60.0000
267.98	56.0000
268.35	53.0000
268.72	57.0000
269.09	55.0000
269.46	56.0000
269.84	60.0000
270.21	56.0000
270.58	59.0000
270.95	63.0000
271.32	54.0000
271.69	58.0000
272.06	57.0000
272.43	59.0000
272.80	53.0000
273.17	57.0000
273.54	61.0000
273.91	55.0000
274.28	59.0000
274.65	57.0000
275.02	59.0000
275.39	51.0000
275.76	59.0000
276.13	58.0000
276.50	55.0000
276.87	56.0000
277.24	55.0000
277.61	60.0000
277.98	57.0000
278.35	63.0000
278.72	56.0000
279.09	59.0000
279.46	59.0000
279.83	54.0000
280.20	55.0000
280.57	55.0000
280.94	56.0000
281.31	56.0000
281.67	61.0000
282.04	61.0000
282.41	58.0000
282.78	56.0000
283.15	55.0000
283.52	56.0000
283.89	57.0000
284.26	59.0000
284.63	60.0000
285.00	57.0000
285.37	60.0000
285.74	58.0000
286.11	56.0000
286.48	58.0000
286.85	57.0000
287.21	59.0000
287.58	58.0000
287.95	57.0000
288.32	56.0000
288.69	54.0000
289.06	52.0000
289.43	56.0000
289.80	60.0000
290.17	55.0000
290.54	56.0000
290.90	55.0000
291.27	57.0000
291.64	57.0000
292.01	58.0000
292.38	59.0000
292.75	60.0000
293.12	57.0000
293.48	57.0000
293.85	57.0000
294.22	61.0000
294.59	61.0000
294.96	58.0000
295.33	56.0000
295.70	58.0000
296.06	52.0000
296.43	59.0000
296.80	54.0000
297.17	59.0000
297.54	57.0000
297.91	58.0000
298.27	59.0000
298.64	60.0000
299.01	59.0000
299.38	57.0000
299.75	57.0000
300.11	57.0000
300.48	60.0000
300.85	58.0000
301.22	52.0000
301.59	62.0000
301.95	54.0000
302.32	57.0000
302.69	62.0000
303.06	58.0000
303.43	58.0000
303.79	58.0000
304.16	57.0000
304.53	63.0000
304.90	54.0000
305.26	63.0000
305.63	58.0000
306.00	58.0000
306.37	58.0000
306.73	57.0000
307.10	58.0000
307.47	55.0000
307.84	58.0000
308.20	59.0000
308.57	57.0000
308.94	63.0000
309.31	59.0000
309.67	58.0000
310.04	58.0000
310.41	54.0000
310.77	55.0000
311.14	54.0000
311.51	53.0000
311.88	63.0000
312.24	62.0000
312.61	62.0000
312.98	57.0000
313.34	57.0000
313.71	57.0000
314.08	58.0000
314.44	59.0000
314.81	56.0000
315.18	57.0000
315.55	54.0000
315.91	57.0000
316.28	56.0000
316.65	61.0000
317.01	55.0000
317.38	53.0000
317.75	61.0000
318.11	58.0000
318.48	53.0000
318.84	59.0000
319.21	60.0000
319.58	57.0000
319.94	56.0000
320.31	54.0000
320.68	57.0000
321.04	59.0000
321.41	59.0000
321.78	58.0000
322.14	55.0000
322.51	60.0000
322.87	57.0000
323.24	58.0000
323.61	58.0000
323.97	57.0000
324.34	57.0000
324.70	59.0000
325.07	60.0000
325.44	57.0000
325.80	56.0000
326.17	60.0000
326.53	54.0000
326.90	59.0000
327.27	59.0000
327.63	56.0000
328.00	57.0000
328.36	55.0000
328.73	60.0000
329.09	61.0000
329.46	57.0000
329.83	57.0000
330.19	64.0000
330.56	56.0000
330.92	55.0000
331.29	55.0000
331.65	53.0000
332.02	52.0000
332.38	55.0000
332.75	55.0000
333.11	55.0000
333.48	56.0000
333.84	59.0000
334.21	55.0000
334.58	54.0000
334.94	61.0000
335.31	59.0000
335.67	60.0000
336.04	57.0000
336.40	56.0000
336.77	59.0000
337.13	60.0000
337.50	57.0000
337.86	56.0000
338.22	59.0000
338.59	58.0000
338.95	58.0000
339.32	60.0000
339.68	56.0000
340.05	58.0000
340.41	55.0000
340.78	55.0000
341.14	58.0000
341.51	59.0000
341.87	58.0000
342.24	59.0000
342.60	57.0000
342.96	57.0000
343.33	57.0000
343.69	61.0000
344.06	55.0000
344.42	58.0000
344.79	59.0000
345.15	60.0000
345.51	61.0000
345.88	56.0000
346.24	62.0000
346.61	57.0000
346.97	61.0000
347.34	60.0000
347.70	61.0000
348.06	59.0000
348.43	57.0000
348.79	59.0000
349.16	59.0000
349.52	56.0000
349.88	54.0000
350.25	54.0000
350.61	61.0000
350.97	57.0000
351.34	57.0000
351.70	53.0000
352.07	55.0000
352.43	58.0000
352.79	55.0000
353.16	55.0000
353.52	61.0000
353.88	56.0000
354.25	58.0000
354.61	58.0000
354.97	53.0000
355.34	62.0000
355.70	62.0000
356.06	57.0000
356.43	56.0000
356.79	56.0000
357.15	56.0000
357.52	59.0000
357.88	57.0000
358.24	57.0000
358.60	56.0000
358.97	56.0000
359.33	58.0000
359.69	60.0000
360.06	57.0000
360.42	58.0000
360.78	62.0000
361.14	58.0000
361.51	61.0000
361.87	54.0000
362.23	61.0000
362.60	61.0000
362.96	61.0000
363.32	59.0000
363.68	59.0000
364.05	52.0000
364.41	61.0000
364.77	54.0000
365.13	55.0000
365.50	59.0000
365.86	58.0000
366.22	55.0000
366.58	58.0000
366.95	57.0000
367.31	58.0000
367.67	54.0000
368.03	54.0000
368.39	57.0000
368.76	57.0000
369.12	55.0000
369.48	59.0000
369.84	54.0000
370.20	59.0000
370.57	62.0000
370.93	56.0000
371.29	54.0000
371.65	53.0000
372.01	56.0000
372.38	52.0000
372.74	56.0000
373.10	64.0000
373.46	57.0000
373.82	59.0000
374.18	58.0000
374.55	57.0000
374.91	60.0000
375.27	52.0000
375.63	58.0000
375.99	57.0000
376.35	58.0000
376.71	55.0000
377.08	60.0000
377.44	57.0000
377.80	58.0000
378.16	57.0000
378.52	59.0000
378.88	56.0000
379.24	62.0000
379.60	58.0000
379.97	56.0000
380.33	55.0000
380.69	53.0000
381.05	59.0000
381.41	50.0000
381.77	58.0000
382.13	60.0000
382.49	55.0000
382.85	61.0000
383.21	61.0000
383.57	61.0000
383.94	55.0000
384.30	64.0000
384.66	52.0000
385.02	60.0000
385.38	61.0000
385.74	57.0000
386.10	60.0000
386.46	59.0000
386.82	57.0000
387.18	59.0000
387.54	60.0000
387.90	56.0000
388.26	57.0000
388.62	54.0000
388.98	57.0000
389.34	63.0000
389.70	58.0000
390.06	55.0000
390.42	61.0000
390.78	60.0000
391.14	58.0000
391.50	59.0000
391.86	52.0000
392.22	60.0000
392.58	60.0000
392.94	57.0000
393.30	60.0000
393.66	57.0000
394.02	58.0000
394.38	59.0000
394.74	55.0000
395.10	57.0000
395.46	62.0000
395.82	57.0000
396.18	59.0000
396.54	55.0000
396.90	58.0000
397.26	61.0000
397.62	57.0000
397.98	60.0000
398.34	61.0000
398.70	57.0000
399.05	60.0000
399.41	59.0000
399.77	59.0000
400.13	56.0000
400.49	60.0000
400.85	54.0000
401.21	55.0000
401.57	54.0000
401.93	62.0000
402.29	63.0000
402.65	59.0000
403.00	61.0000
403.36	58.0000
403.72	55.0000
404.08	63.0000
404.44	59.0000
404.80	60.0000
405.16	58.0000
405.52	54.0000
405.87	56.0000
406.23	63.0000
406.59	59.0000
406.95	57.0000
407.31	58.0000
407.67	56.0000
408.03	54.0000
408.38	57.0000
408.74	56.0000
409.10	57.0000
409.46	60.0000
409.82	60.0000
410.17	58.0000
410.53	55.0000
410.89	57.0000
411.25	55.0000
411.61	53.0000
411.97	57.0000
412.32	59.0000
412.68	57.0000
413.04	58.0000
413.40	59.0000
413.75	58.0000
414.11	57.0000
414.47	57.0000
414.83	60.0000
415.19	57.0000
415.54	57.0000
415.90	54.0000
416.26	60.0000
416.62	58.0000
416.97	61.0000
417.33	56.0000
417.69	55.0000
418.05	59.0000
418.40	62.0000
418.76	59.0000
419.12	55.0000
419.48	61.0000
419.83	60.0000
420.19	60.0000
420.55	58.0000
420.90	60.0000
421.26	60.0000
421.62	56.0000
421.98	61.0000
422.33	58.0000
422.69	63.0000
423.05	57.0000
423.40	58.0000
423.76	57.0000
424.12	59.0000
424.47	60.0000
424.83	56.0000
425.19	56.0000
425.54	60.0000
425.90	61.0000
426.26	59.0000
426.61	56.0000
426.97	55.0000
427.33	59.0000
427.68	60.0000
428.04	57.0000
428.40	60.0000
428.75	61.0000
429.11	60.0000
429.47	56.0000
429.82	61.0000
430.18	57.0000
430.53	55.0000
430.89	58.0000
431.25	55.0000
431.60	62.0000
431.96	57.0000
432.31	65.0000
432.67	65.0000
433.03	59.0000
433.38	62.0000
433.74	59.0000
434.09	53.0000
434.45	61.0000
434.81	60.0000
435.16	59.0000
435.52	59.0000
435.87	59.0000
436.23	60.0000
436.58	58.0000
436.94	60.0000
437.30	58.0000
437.65	63.0000
438.01	56.0000
438.36	53.0000
438.72	56.0000
439.07	59.0000
439.43	58.0000
439.78	61.0000
440.14	55.0000
440.49	53.0000
440.85	62.0000
441.20	58.0000
441.56	56.0000
441.91	53.0000
442.27	54.0000
442.62	55.0000
442.98	53.0000
443.33	60.0000
443.69	54.0000
444.04	60.0000
444.40	56.0000
444.75	62.0000
445.11	58.0000
445.46	58.0000
445.82	61.0000
446.17	61.0000
446.53	58.0000
446.88	58.0000
447.23	57.0000
447.59	65.0000
447.94	59.0000
448.30	53.0000
448.65	58.0000
449.01	59.0000
449.36	56.0000
449.72	56.0000
450.07	59.0000
450.42	56.0000
450.78	57.0000
451.13	58.0000
451.49	55.0000
451.84	59.0000
452.19	56.0000
452.55	58.0000
452.90	60.0000
453.26	59.0000
453.61	63.0000
453.96	54.0000
454.32	61.0000
454.67	59.0000
455.02	59.0000
455.38	61.0000
455.73	61.0000
456.09	57.0000
456.44	62.0000
456.79	59.0000
457.15	58.0000
457.50	57.0000
457.85	54.0000
458.21	61.0000
458.56	61.0000
458.91	59.0000
459.27	59.0000
459.62	62.0000
459.97	59.0000
460.32	62.0000
460.68	58.0000
461.03	55.0000
461.38	56.0000
461.74	59.0000
462.09	63.0000
462.44	57.0000
462.80	56.0000
463.15	61.0000
463.50	60.0000
463.85	53.0000
464.21	55.0000
464.56	57.0000
464.91	58.0000
465.26	59.0000
465.62	61.0000
465.97	58.0000
466.32	56.0000
466.67	60.0000
467.03	58.0000
467.38	59.0000
467.73	55.0000
468.08	65.0000
468.44	58.0000
468.79	57.0000
469.14	61.0000
469.49	62.0000
469.85	60.0000
470.20	60.0000
470.55	55.0000
470.90	58.0000
471.25	59.0000
471.61	58.0000
471.96	63.0000
472.31	59.0000
472.66	58.0000
473.01	58.0000
473.36	56.0000
473.72	60.0000
474.07	55.0000
474.42	57.0000
474.77	63.0000
475.12	63.0000
475.47	56.0000
475.83	56.0000
476.18	61.0000
476.53	61.0000
476.88	60.0000
477.23	54.0000
477.58	57.0000
477.93	58.0000
478.28	59.0000
478.64	60.0000
478.99	55.0000
479.34	61.0000
479.69	62.0000
480.04	58.0000
480.39	58.0000
480.74	58.0000
481.09	54.0000
481.44	60.0000
481.79	58.0000
482.15	61.0000
482.50	59.0000
482.85	59.0000
483.20	54.0000
483.55	59.0000
483.90	59.0000
484.25	62.0000
484.60	57.0000
484.95	60.0000
485.30	54.0000
485.65	59.0000
486.00	56.0000
486.35	63.0000
486.70	59.0000
487.05	61.0000
487.40	62.0000
487.75	58.0000
488.10	56.0000
488.45	59.0000
488.80	57.0000
489.15	57.0000
489.50	56.0000
489.85	57.0000
490.20	61.0000
490.55	60.0000
490.90	58.0000
491.25	60.0000
491.60	59.0000
491.95	60.0000
492.30	57.0000
492.65	56.0000
493.00	57.0000
493.35	56.0000
493.70	60.0000
494.05	59.0000
494.40	58.0000
494.75	58.0000
495.10	58.0000
495.45	54.0000
495.80	58.0000
496.15	59.0000
496.50	57.0000
496.84	60.0000
497.19	61.0000
497.54	58.0000
497.89	59.0000
498.24	58.0000
498.59	56.0000
498.94	58.0000
499.29	60.0000
499.64	57.0000
499.99	56.0000
500.33	58.0000
500.68	59.0000
501.03	55.0000
501.38	55.0000
501.73	56.0000
502.08	53.0000
502.43	59.0000
502.77	57.0000
503.12	61.0000
503.47	63.0000
503.82	64.0000
504.17	53.0000
504.52	60.0000
504.86	59.0000
505.21	59.0000
505.56	60.0000
505.91	59.0000
506.26	58.0000
506.61	59.0000
506.95	58.0000
507.30	63.0000
507.65	59.0000
508.00	61.0000
508.35	56.0000
508.69	56.0000
509.04	57.0000
509.39	57.0000
509.74	62.0000
510.08	61.0000
510.43	57.0000
510.78	56.0000
511.13	56.0000
511.47	58.0000
511.82	59.0000
512.17	59.0000
512.52	56.0000
512.86	56.0000
513.21	56.0000
513.56	60.0000
513.91	60.0000
514.25	58.0000
514.60	59.0000
514.95	58.0000
515.30	62.0000
515.64	53.0000
515.99	61.0000
516.34	61.0000
516.68	61.0000
517.03	57.0000
517.38	55.0000
517.72	59.0000
518.07	59.0000
518.42	60.0000
518.76	61.0000
519.11	55.0000
519.46	63.0000
519.80	59.0000
520.15	59.0000
520.50	56.0000
520.84	55.0000
521.19	58.0000
521.54	58.0000
521.88	63.0000
522.23	57.0000
522.58	58.0000
522.92	59.0000
523.27	57.0000
523.61	59.0000
523.96	57.0000
524.31	61.0000
524.65	54.0000
525.00	57.0000
525.34	57.0000
525.69	58.0000
526.04	60.0000
526.38	63.0000
526.73	59.0000
527.07	59.0000
527.42	57.0000
527.76	56.0000
528.11	57.0000
528.46	61.0000
528.80	57.0000
529.15	65.0000
529.49	59.0000
529.84	57.0000
530.18	59.0000
530.53	62.0000
530.87	54.0000
531.22	56.0000
531.56	57.0000
531.91	62.0000
532.25	63.0000
532.60	56.0000
532.94	61.0000
533.29	57.0000
533.63	62.0000
533.98	59.0000
534.32	59.0000
534.67	58.0000
535.01	55.0000
535.36	60.0000
535.70	63.0000
536.05	61.0000
536.39	62.0000
536.74	56.0000
537.08	57.0000
537.43	53.0000
537.77	60.0000
538.12	62.0000
538.46	55.0000
538.80	60.0000
539.15	61.0000
539.49	57.0000
539.84	55.0000
540.18	58.0000
540.53	54.0000
540.87	55.0000
541.21	60.0000
541.56	63.0000
541.90	60.0000
542.25	62.0000
542.59	60.0000
542.93	58.0000
543.28	60.0000
543.62	57.0000
543.97	58.0000
544.31	57.0000
544.65	58.0000
545.00	62.0000
545.34	60.0000
545.68	61.0000
546.03	59.0000
546.37	54.0000
546.71	59.0000
547.06	61.0000
547.40	60.0000
547.74	56.0000
548.09	62.0000
548.43	59.0000
548.77	59.0000
549.12	60.0000
549.46	60.0000
549.80	60.0000
550.15	52.0000
550.49	57.0000
550.83	56.0000
551.17	58.0000
551.52	60.0000
551.86	62.0000
552.20	55.0000
552.55	59.0000
552.89	59.0000
553.23	54.0000
553.57	58.0000
553.92	60.0000
554.26	61.0000
554.60	58.0000
554.94	54.0000
555.29	58.0000
555.63	57.0000
555.97	58.0000
556.31	55.0000
556.66	60.0000
557.00	55.0000
557.34	58.0000
557.68	61.0000
558.02	56.0000
558.37	63.0000
558.71	56.0000
559.05	59.0000
559.39	55.0000
559.73	57.0000
560.08	58.0000
560.42	59.0000
560.76	60.0000
561.10	53.0000
561.44	59.0000
561.78	58.0000
562.13	56.0000
562.47	58.0000
562.81	56.0000
563.15	56.0000
563.49	56.0000
563.83	61.0000
564.17	63.0000
564.52	60.0000
564.86	54.0000
565.20	61.0000
565.54	61.0000
565.88	58.0000
566.22	59.0000
566.56	57.0000
566.90	59.0000
567.24	56.0000
567.59	59.0000
567.93	57.0000
568.27	60.0000
568.61	60.0000
568.95	56.0000
569.29	58.0000
569.63	55.0000
569.97	61.0000
570.31	56.0000
570.65	58.0000
570.99	60.0000
571.33	56.0000
571.67	59.0000
572.01	60.0000
572.35	60.0000
572.69	62.0000
573.03	62.0000
573.37	58.0000
573.71	57.0000
574.05	55.0000
574.39	60.0000
574.73	60.0000
575.07	56.0000
575.41	59.0000
575.75	55.0000
576.09	57.0000
576.43	52.0000
576.77	59.0000
577.11	58.0000
577.45	61.0000
577.79	55.0000
578.13	57.0000
578.47	57.0000
578.81	52.0000
579.15	55.0000
579.49	57.0000
579.83	58.0000
580.17	55.0000
580.51	59.0000
580.85	61.0000
581.19	55.0000
581.53	60.0000
581.87	52.0000
582.20	59.0000
582.54	61.0000
582.88	56.0000
583.22	61.0000
583.56	62.0000
583.90	65.0000
584.24	60.0000
584.58	61.0000
584.92	61.0000
585.25	56.0000
585.59	60.0000
585.93	57.0000
586.27	61.0000
586.61	61.0000
586.95	53.0000
587.29	57.0000
587.62	52.0000
587.96	56.0000
588.30	60.0000
588.64	57.0000
588.98	56.0000
589.31	55.0000
589.65	57.0000
589.99	57.0000
590.33	55.0000
590.67	56.0000
591.01	60.0000
591.34	58.0000
591.68	63.0000
592.02	59.0000
592.36	60.0000
592.69	61.0000
593.03	55.0000
593.37	64.0000
593.71	61.0000
594.04	59.0000
594.38	59.0000
594.72	59.0000
595.06	56.0000
595.39	57.0000
595.73	56.0000
596.07	59.0000
596.41	55.0000
596.74	60.0000
597.08	57.0000
597.42	59.0000
597.76	58.0000
598.09	55.0000
598.43	58.0000
598.77	54.0000
599.10	58.0000
599.44	59.0000
599.78	56.0000
600.11	63.0000
600.45	58.0000
600.79	57.0000
601.12	57.0000
601.46	57.0000
601.80	57.0000
602.13	56.0000
602.47	64.0000
602.81	59.0000
603.14	60.0000
603.48	59.0000
603.82	56.0000
604.15	54.0000
604.49	57.0000
604.82	58.0000
605.16	62.0000
605.50	56.0000
605.83	61.0000
606.17	57.0000
606.50	56.0000
606.84	60.0000
607.18	56.0000
607.51	60.0000
607.85	61.0000
608.18	60.0000
608.52	57.0000
608.86	60.0000
609.19	62.0000
609.53	55.0000
609.86	56.0000
610.20	57.0000
610.53	56.0000
610.87	57.0000
611.20	59.0000
611.54	60.0000
611.87	56.0000
612.21	57.0000
612.54	60.0000
612.88	59.0000
613.21	59.0000
613.55	54.0000
613.88	60.0000
614.22	60.0000
614.55	60.0000
614.89	64.0000
615.22	57.0000
615.56	53.0000
615.89	55.0000
