OOIBase32 Version 1.0.0.8 Data File
++++++++++++++++++++++++++++++++++++
Date: Sunday, January 20, 1980, 01:21:38
User: Valued Ocean Optics Customer
Spectrometer Serial Number: Unknown
Spectrometer Channel: Master
Integration Time (msec): 5
Spectra Averaged: 20
Boxcar Smoothing: 0
Correct for Electrical Dark: Disabled
Time Normalized: Disabled
Dual-beam Reference: Disabled
Reference Channel: Master
>>>>>Begin Spectral Data<<<<<
179.00	0.0000
179.38	0.0000
179.75	58.9000
180.13	59.1500
180.51	60.3500
180.88	60.8000
181.26	61.2500
181.64	60.5000
182.02	60.6000
182.39	60.8000
182.77	60.1000
183.15	60.1500
183.52	60.3500
183.90	60.6500
184.28	60.3500
184.65	60.5000
185.03	60.6000
185.41	60.4500
185.78	59.9000
186.16	60.8500
186.53	60.2500
186.91	58.9000
187.29	61.1000
187.66	60.3500
188.04	59.6000
188.42	62.0500
188.79	61.8500
189.17	63.0000
189.55	62.9500
189.92	62.2000
190.30	62.6000
190.67	62.3000
191.05	62.9500
191.43	63.2500
191.80	61.8500
192.18	62.0500
192.56	62.6000
192.93	62.0500
193.31	62.8500
193.68	62.8500
194.06	62.5000
194.44	62.8500
194.81	62.6000
195.19	62.2000
195.56	61.9500
195.94	62.3500
196.32	62.9500
196.69	63.0000
197.07	63.0500
197.44	62.0500
197.82	64.2500
198.19	62.1500
198.57	62.3000
198.95	62.9000
199.32	63.7000
199.70	62.9000
200.07	62.7500
200.45	62.4500
200.82	62.3500
201.20	62.6500
201.57	62.6500
201.95	62.3000
202.33	62.2000
202.70	62.8000
203.08	62.8000
203.45	62.6500
203.83	63.3500
204.20	63.4000
204.58	63.7500
204.95	61.9000
205.33	62.3500
205.70	63.4000
206.08	62.8500
206.45	62.9500
206.83	62.8000
207.20	62.9000
207.58	62.3500
207.95	62.9500
208.33	62.4000
208.70	62.4500
209.08	62.2000
209.45	62.3500
209.83	63.3000
210.20	63.5000
210.58	63.0000
210.95	63.9500
211.33	62.6000
211.70	62.2000
212.08	62.8000
212.45	62.5000
212.83	62.3000
213.20	62.3000
213.58	63.1500
213.95	63.8000
214.33	62.4000
214.70	63.1500
215.07	63.4500
215.45	62.5500
215.82	63.3000
216.20	63.4500
216.57	62.9500
216.95	63.0000
217.32	63.9000
217.70	63.5500
218.07	62.7500
218.44	63.6500
218.82	62.7000
219.19	63.6000
219.57	62.6500
219.94	62.9500
220.32	62.9000
220.69	63.1000
221.06	62.5500
221.44	63.2500
221.81	62.0500
222.19	63.1500
222.56	63.0500
222.93	62.6500
223.31	61.8500
223.68	63.4500
224.06	63.1500
224.43	63.9000
224.80	62.9500
225.18	63.1500
225.55	62.8000
225.92	63.0500
226.30	62.8500
226.67	62.9000
227.05	63.0500
227.42	62.8500
227.79	62.7500
228.17	62.6000
228.54	63.0000
228.91	63.0500
229.29	63.1000
229.66	63.5000
230.03	63.2000
230.41	63.0500
230.78	62.9500
231.15	63.3000
231.53	63.4000
231.90	62.3000
232.27	62.4000
232.65	62.2500
233.02	63.5000
233.39	64.1500
233.77	63.4000
234.14	64.0000
234.51	62.4500
234.89	64.0500
235.26	62.8500
235.63	63.0000
236.01	61.6000
236.38	63.1000
236.75	63.4000
237.12	62.4500
237.50	63.4500
237.87	64.2000
238.24	63.2500
238.62	64.3500
238.99	62.8000
239.36	63.7500
239.73	63.3000
240.11	63.9500
240.48	63.1000
240.85	62.7500
241.23	63.6000
241.60	64.5500
241.97	64.0500
242.34	63.3000
242.72	62.2000
243.09	62.8500
243.46	63.0000
243.83	63.8000
244.21	62.5500
244.58	63.3000
244.95	63.3000
245.32	63.0500
245.70	62.9500
246.07	63.2000
246.44	63.4000
246.81	63.2500
247.18	63.9000
247.56	63.5500
247.93	62.8000
248.30	63.5500
248.67	63.6000
249.04	63.1000
249.42	62.9500
249.79	63.9500
250.16	62.4000
250.53	64.4000
250.90	63.2500
251.28	63.3000
251.65	63.8000
252.02	64.2000
252.39	63.7500
252.76	63.4500
253.14	63.5000
253.51	64.4000
253.88	63.8000
254.25	63.2500
254.62	62.9500
254.99	63.8000
255.37	64.4500
255.74	63.2500
256.11	62.0500
256.48	64.1000
256.85	64.4000
257.22	63.2000
257.59	63.5000
257.97	62.9500
258.34	63.2000
258.71	63.5500
259.08	63.7500
259.45	63.5500
259.82	63.6500
260.19	62.5000
260.56	62.0000
260.94	63.7000
261.31	62.7500
261.68	64.1000
262.05	63.3500
262.42	63.6000
262.79	63.2500
263.16	63.3500
263.53	62.7500
263.90	63.5500
264.28	64.0000
264.65	63.8500
265.02	62.9500
265.39	63.0500
265.76	63.0000
266.13	62.6000
266.50	63.3500
266.87	63.2000
267.24	64.2500
267.61	64.6000
267.98	64.3000
268.35	64.8000
268.72	62.9500
269.09	62.8500
269.46	63.0500
269.84	64.3000
270.21	63.5500
270.58	63.8000
270.95	64.1000
271.32	62.9500
271.69	64.5500
272.06	64.1000
272.43	65.0000
272.80	63.2500
273.17	63.6000
273.54	64.0500
273.91	63.3500
274.28	64.2000
274.65	64.1500
275.02	63.2000
275.39	63.4000
275.76	63.1500
276.13	62.7500
276.50	63.8000
276.87	63.9000
277.24	63.9500
277.61	63.2000
277.98	62.9000
278.35	63.7500
278.72	63.9500
279.09	64.5000
279.46	63.6500
279.83	63.4500
280.20	64.4000
280.57	64.0000
280.94	63.4000
281.31	64.4500
281.67	63.7000
282.04	62.9000
282.41	64.3500
282.78	64.1500
283.15	63.4500
283.52	64.1500
283.89	64.3000
284.26	63.7500
284.63	63.7000
285.00	63.7000
285.37	63.9500
285.74	63.5000
286.11	62.7000
286.48	64.2000
286.85	63.8500
287.21	63.3500
287.58	62.9500
287.95	63.4000
288.32	63.8500
288.69	63.8000
289.06	62.8500
289.43	62.9000
289.80	64.5000
290.17	64.2500
290.54	63.5000
290.90	64.7000
291.27	63.3500
291.64	64.3500
292.01	64.1000
292.38	63.6000
292.75	64.1000
293.12	63.3500
293.48	63.1500
293.85	64.2000
294.22	64.2000
294.59	62.6000
294.96	63.4500
295.33	63.8500
295.70	63.8500
296.06	63.5500
296.43	62.9000
296.80	63.2500
297.17	62.4000
297.54	63.6000
297.91	63.6000
298.27	63.5500
298.64	64.0500
299.01	64.0500
299.38	63.8500
299.75	62.5000
300.11	63.6500
300.48	63.6500
300.85	64.6500
301.22	64.3000
301.59	63.9000
301.95	63.4500
302.32	63.4500
302.69	64.0000
303.06	62.8000
303.43	63.6500
303.79	62.8500
304.16	63.0000
304.53	63.2500
304.90	63.4000
305.26	63.9000
305.63	64.0000
306.00	64.4500
306.37	64.6000
306.73	63.4000
307.10	62.5000
307.47	63.5500
307.84	64.2500
308.20	63.5500
308.57	65.1500
308.94	63.4500
309.31	63.8000
309.67	64.3000
310.04	63.8500
310.41	63.8500
310.77	62.9500
311.14	64.1500
311.51	64.1500
311.88	64.0500
312.24	64.1500
312.61	63.5000
312.98	63.2500
313.34	65.0000
313.71	64.6000
314.08	64.4500
314.44	64.1000
314.81	63.9500
315.18	63.7500
315.55	64.9500
315.91	64.7500
316.28	64.3000
316.65	64.6500
317.01	63.7000
317.38	64.0500
317.75	64.2500
318.11	63.5500
318.48	64.4000
318.84	63.4500
319.21	64.2500
319.58	63.0500
319.94	63.3000
320.31	63.7500
320.68	64.5500
321.04	64.4500
321.41	64.2500
321.78	64.7500
322.14	64.4000
322.51	64.3000
322.87	65.0000
323.24	64.3000
323.61	65.1000
323.97	63.9000
324.34	63.2000
324.70	63.9500
325.07	62.8500
325.44	63.5500
325.80	63.2000
326.17	63.2500
326.53	64.8000
326.90	64.9000
327.27	64.5000
327.63	63.2500
328.00	64.4500
328.36	63.3000
328.73	63.8000
329.09	64.4000
329.46	66.2500
329.83	64.5000
330.19	64.1000
330.56	63.2500
330.92	64.2500
331.29	65.2000
331.65	63.9000
332.02	64.8500
332.38	63.4000
332.75	64.5500
333.11	63.9000
333.48	62.6500
333.84	65.3000
334.21	64.3000
334.58	64.4000
334.94	64.3000
335.31	63.3000
335.67	64.6000
336.04	64.4000
336.40	65.4500
336.77	64.7000
337.13	64.7500
337.50	64.3000
337.86	63.8000
338.22	64.9000
338.59	64.1000
338.95	64.5000
339.32	64.7000
339.68	64.5500
340.05	64.4000
340.41	65.3500
340.78	64.3000
341.14	65.1500
341.51	64.8500
341.87	64.5000
342.24	64.6000
342.60	64.1000
342.96	63.8500
343.33	62.6000
343.69	63.8500
344.06	65.5500
344.42	65.0000
344.79	65.2000
345.15	64.2500
345.51	64.8000
345.88	63.9500
346.24	65.6000
346.61	64.4000
346.97	64.8500
347.34	65.5500
347.70	64.6500
348.06	63.9000
348.43	64.9500
348.79	65.1000
349.16	65.1500
349.52	64.9500
349.88	64.1500
350.25	64.8500
350.61	64.6000
350.97	65.1500
351.34	64.3000
351.70	64.8000
352.07	64.9500
352.43	64.3000
352.79	64.1500
353.16	64.3500
353.52	65.2500
353.88	64.5000
354.25	64.8000
354.61	64.7000
354.97	64.9000
355.34	64.8000
355.70	64.4500
356.06	65.5000
356.43	65.6500
356.79	65.7500
357.15	64.6500
357.52	64.6500
357.88	64.9000
358.24	64.4500
358.60	64.5500
358.97	65.3000
359.33	64.8500
359.69	65.0500
360.06	65.2000
360.42	66.5500
360.78	65.2500
361.14	64.2000
361.51	66.7000
361.87	65.6000
362.23	66.8500
362.60	65.9000
362.96	66.5000
363.32	64.8000
363.68	66.2000
364.05	66.5000
364.41	66.3000
364.77	65.4000
365.13	65.8500
365.50	65.9000
365.86	66.2500
366.22	66.5500
366.58	66.0000
366.95	66.4000
367.31	66.3000
367.67	66.0500
368.03	66.5500
368.39	65.9500
368.76	66.1000
369.12	66.7500
369.48	65.1000
369.84	66.7500
370.20	67.7000
370.57	67.3000
370.93	66.2000
371.29	67.1500
371.65	67.3000
372.01	66.6000
372.38	66.2000
372.74	67.0500
373.10	66.5000
373.46	67.6500
373.82	67.5500
374.18	65.7000
374.55	66.5000
374.91	68.0500
375.27	67.2500
375.63	67.4000
375.99	66.8500
376.35	67.7500
376.71	68.1500
377.08	67.1000
377.44	66.0000
377.80	67.1500
378.16	67.9000
378.52	67.7000
378.88	68.5000
379.24	67.0500
379.60	67.9500
379.97	69.2000
380.33	68.6000
380.69	67.4000
381.05	67.4000
381.41	68.1000
381.77	69.3500
382.13	69.3000
382.49	69.2500
382.85	69.3500
383.21	68.6500
383.57	69.8500
383.94	70.2000
384.30	69.7000
384.66	68.8500
385.02	69.2500
385.38	70.4000
385.74	69.5500
386.10	69.6500
386.46	70.2000
386.82	70.2500
387.18	70.0000
387.54	69.7500
387.90	70.2500
388.26	70.1500
388.62	71.5500
388.98	70.8500
389.34	71.1000
389.70	70.3500
390.06	70.1500
390.42	71.4500
390.78	70.7500
391.14	71.5500
391.50	71.1500
391.86	71.7000
392.22	72.1500
392.58	71.1000
392.94	70.6000
393.30	70.6500
393.66	71.1000
394.02	72.5500
394.38	71.7000
394.74	72.8500
395.10	72.4500
395.46	73.8000
395.82	72.4000
396.18	72.1500
396.54	73.4500
396.90	73.8500
397.26	74.3500
397.62	74.6000
397.98	74.5500
398.34	72.8000
398.70	74.2500
399.05	72.8500
399.41	73.3000
399.77	74.1500
400.13	75.2000
400.49	74.4500
400.85	75.4000
401.21	73.4500
401.57	75.2500
401.93	75.3000
402.29	75.6000
402.65	76.2500
403.00	77.3000
403.36	76.7500
403.72	75.9000
404.08	77.5000
404.44	74.7500
404.80	76.5000
405.16	77.7000
405.52	77.4500
405.87	77.8000
406.23	79.2000
406.59	76.8500
406.95	77.4000
407.31	77.9500
407.67	77.0000
408.03	77.5000
408.38	79.3500
408.74	79.0000
409.10	79.5500
409.46	77.5000
409.82	80.0500
410.17	79.8000
410.53	78.8500
410.89	79.7500
411.25	78.6000
411.61	79.2500
411.97	81.2500
412.32	80.8500
412.68	80.5500
413.04	79.8000
413.40	77.5500
413.75	79.6000
414.11	81.5000
414.47	81.0000
414.83	82.8500
415.19	80.9000
415.54	81.0000
415.90	82.8500
416.26	82.2500
416.62	82.1000
416.97	81.8000
417.33	83.5500
417.69	83.3000
418.05	82.9000
418.40	82.2500
418.76	82.9000
419.12	84.4000
419.48	83.4000
419.83	85.7500
420.19	83.5500
420.55	84.1500
420.90	85.3000
421.26	84.7000
421.62	84.5500
421.98	86.7500
422.33	85.7500
422.69	87.6500
423.05	88.5500
423.40	86.4000
423.76	85.6500
424.12	88.1000
424.47	87.8500
424.83	86.7000
425.19	87.0500
425.54	86.9500
425.90	88.1000
426.26	89.4500
426.61	90.4500
426.97	86.0000
427.33	90.0500
427.68	90.8000
428.04	90.2500
428.40	93.1000
428.75	93.9000
429.11	91.7000
429.47	93.9000
429.82	94.6000
430.18	94.8000
430.53	93.6500
430.89	93.3000
431.25	94.1000
431.60	95.1000
431.96	94.2000
432.31	93.7500
432.67	96.6000
433.03	95.5500
433.38	95.1000
433.74	96.1000
434.09	94.6000
434.45	95.9000
434.81	94.9500
435.16	97.7500
435.52	96.5500
435.87	93.8500
436.23	94.8500
436.58	94.8500
436.94	98.6000
437.30	97.4000
437.65	100.3000
438.01	99.0500
438.36	99.3000
438.72	97.5500
439.07	97.8000
439.43	98.4000
439.78	101.0500
440.14	102.2500
440.49	100.5000
440.85	100.1500
441.20	100.9000
441.56	100.6000
441.91	104.4500
442.27	101.7000
442.62	102.6500
442.98	103.0000
443.33	101.7000
443.69	102.3500
444.04	104.3500
444.40	100.0500
444.75	105.0500
445.11	106.6000
445.46	106.8500
445.82	106.9500
446.17	104.3500
446.53	106.3000
446.88	113.0500
447.23	105.2000
447.59	105.2000
447.94	102.7000
448.30	108.5000
448.65	107.3500
449.01	109.2500
449.36	110.6500
449.72	113.8000
450.07	115.8500
450.42	113.8500
450.78	112.2000
451.13	114.5500
451.49	112.7000
451.84	110.7000
452.19	111.0000
452.55	114.9000
452.90	113.5000
453.26	118.3000
453.61	120.1000
453.96	111.0500
454.32	116.9500
454.67	118.5500
455.02	114.3000
455.38	116.2000
455.73	116.7000
456.09	122.2000
456.44	121.0000
456.79	120.2500
457.15	120.0500
457.50	119.3000
457.85	120.4500
458.21	119.0000
458.56	122.0000
458.91	121.8500
459.27	118.3000
459.62	121.0500
459.97	120.3000
460.32	123.4500
460.68	123.8500
461.03	122.4000
461.38	123.0500
461.74	132.2000
462.09	128.2500
462.44	125.4000
462.80	124.5500
463.15	126.6500
463.50	126.8500
463.85	132.5500
464.21	129.3000
464.56	133.1000
464.91	129.0000
465.26	128.8000
465.62	130.2500
465.97	136.2500
466.32	133.8500
466.67	134.2500
467.03	136.0000
467.38	137.5500
467.73	138.6000
468.08	141.6000
468.44	140.1000
468.79	139.7000
469.14	136.0500
469.49	141.7500
469.85	144.9500
470.20	151.9500
470.55	151.0000
470.90	152.0500
471.25	148.7000
471.61	151.4000
471.96	153.7500
472.31	154.4000
472.66	155.7500
473.01	158.8500
473.36	161.8500
473.72	159.5500
474.07	164.1500
474.42	165.6500
474.77	164.4000
475.12	168.3500
475.47	169.5500
475.83	171.3500
476.18	171.6500
476.53	170.3500
476.88	178.3000
477.23	178.6000
477.58	177.1500
477.93	180.4000
478.28	180.3500
478.64	183.6000
478.99	185.9500
479.34	187.6000
479.69	190.5500
480.04	193.6000
480.39	194.7500
480.74	194.3500
481.09	200.0500
481.44	200.5000
481.79	202.2000
482.15	201.9000
482.50	205.2500
482.85	205.5500
483.20	211.2000
483.55	209.7500
483.90	213.4000
484.25	212.1500
484.60	212.2000
484.95	216.8500
485.30	218.6000
485.65	220.4000
486.00	223.2000
486.35	221.5500
486.70	223.7500
487.05	229.6000
487.40	229.3500
487.75	229.0500
488.10	231.9000
488.45	228.3000
488.80	231.6000
489.15	236.9000
489.50	236.6000
489.85	238.1500
490.20	240.0000
490.55	242.4000
490.90	241.7500
491.25	243.4500
491.60	244.1000
491.95	245.4500
492.30	246.6500
492.65	249.0000
493.00	251.1000
493.35	251.2000
493.70	252.7500
494.05	253.5000
494.40	257.1500
494.75	257.3500
495.10	257.9500
495.45	259.2500
495.80	260.8000
496.15	262.6500
496.50	261.9000
496.84	263.3500
497.19	264.3500
497.54	269.0000
497.89	268.3500
498.24	269.3000
498.59	273.0000
498.94	273.7000
499.29	274.6500
499.64	275.2000
499.99	279.6500
500.33	281.9000
500.68	284.4000
501.03	287.0500
501.38	288.7000
501.73	293.5500
502.08	293.4000
502.43	299.7500
502.77	301.2500
503.12	305.1500
503.47	307.1000
503.82	313.4500
504.17	319.2500
504.52	322.6500
504.86	324.9500
505.21	335.3500
505.56	336.1500
505.91	341.3500
506.26	346.9500
506.61	355.4000
506.95	362.9000
507.30	369.5000
507.65	380.5500
508.00	385.0500
508.35	393.2000
508.69	402.1000
509.04	413.8500
509.39	419.9000
509.74	429.0000
510.08	438.2500
510.43	454.0000
510.78	466.6500
511.13	476.9000
511.47	493.1000
511.82	507.1000
512.17	519.6500
512.52	537.7500
512.86	552.8500
513.21	567.0000
513.56	584.3000
513.91	602.7500
514.25	618.6000
514.60	640.0000
514.95	656.0500
515.30	671.6500
515.64	688.7500
515.99	717.0500
516.34	736.7000
516.68	758.4500
517.03	774.1000
517.38	791.6000
517.72	823.0500
518.07	837.1000
518.42	856.2000
518.76	878.3500
519.11	899.7500
519.46	925.0500
519.80	932.9000
520.15	955.6500
520.50	979.7500
520.84	992.3000
521.19	1012.6000
521.54	1031.8500
521.88	1042.4000
522.23	1064.4000
522.58	1074.5000
522.92	1093.9500
523.27	1111.2500
523.61	1125.7500
523.96	1137.0500
524.31	1165.0000
524.65	1175.9000
525.00	1178.2500
525.34	1179.7500
525.69	1190.4500
526.04	1219.8000
526.38	1226.5500
526.73	1237.2500
527.07	1252.5000
527.42	1256.2000
527.76	1266.0500
528.11	1280.9500
528.46	1280.0000
528.80	1282.8500
529.15	1283.2000
529.49	1292.0500
529.84	1300.3000
530.18	1311.8500
530.53	1329.8500
530.87	1330.1000
531.22	1328.3000
531.56	1335.2500
531.91	1341.7500
532.25	1340.3000
532.60	1343.3500
532.94	1355.6500
533.29	1351.8500
533.63	1349.1000
533.98	1354.9500
534.32	1364.3500
534.67	1376.3000
535.01	1385.3500
535.36	1381.8500
535.70	1396.5000
536.05	1398.0500
536.39	1405.2000
536.74	1390.0000
537.08	1383.1500
537.43	1389.2000
537.77	1403.7000
538.12	1421.2500
538.46	1423.6500
538.80	1430.7500
539.15	1417.7500
539.49	1424.4500
539.84	1442.6000
540.18	1439.7000
540.53	1439.4500
540.87	1436.5500
541.21	1457.3000
541.56	1450.9000
541.90	1461.8500
542.25	1456.0500
542.59	1454.2500
542.93	1471.4000
543.28	1462.6000
543.62	1474.1000
543.97	1473.6000
544.31	1483.6000
544.65	1484.5500
545.00	1493.4000
545.34	1496.6000
545.68	1500.1000
546.03	1497.3500
546.37	1511.8500
546.71	1512.3500
547.06	1519.1500
547.40	1515.4500
547.74	1536.8500
548.09	1525.9000
548.43	1535.3000
548.77	1538.2000
549.12	1534.4000
549.46	1533.4500
549.80	1549.1500
550.15	1557.5500
550.49	1564.1500
550.83	1559.4500
551.17	1569.0500
551.52	1567.4000
551.86	1569.9000
552.20	1579.4000
552.55	1588.3500
552.89	1591.6000
553.23	1596.6500
553.57	1603.7000
553.92	1601.3500
554.26	1614.2000
554.60	1609.4000
554.94	1612.5500
555.29	1624.5000
555.63	1630.4000
555.97	1636.9000
556.31	1634.2000
556.66	1642.5000
557.00	1636.2500
557.34	1653.9000
557.68	1663.0000
558.02	1662.2500
558.37	1660.1000
558.71	1669.5000
559.05	1666.2500
559.39	1676.9500
559.73	1686.9000
560.08	1685.1500
560.42	1696.0000
560.76	1694.8500
561.10	1695.7500
561.44	1694.0000
561.78	1709.2000
562.13	1712.9000
562.47	1703.5000
562.81	1720.6500
563.15	1716.8000
563.49	1724.8000
563.83	1735.8000
564.17	1735.2500
564.52	1736.5000
564.86	1744.9000
565.20	1746.3000
565.54	1746.6000
565.88	1743.0000
566.22	1755.6000
566.56	1747.1000
566.90	1758.6500
567.24	1761.1500
567.59	1755.9000
567.93	1760.4500
568.27	1770.2500
568.61	1780.9000
568.95	1770.3500
569.29	1771.3000
569.63	1792.9000
569.97	1785.3000
570.31	1763.1000
570.65	1778.7500
570.99	1788.1500
571.33	1795.4500
571.67	1783.4000
572.01	1786.0000
572.35	1796.9500
572.69	1802.1000
573.03	1809.1500
573.37	1803.2000
573.71	1800.3500
574.05	1787.5500
574.39	1791.2500
574.73	1801.5000
575.07	1796.6000
575.41	1801.0000
575.75	1805.9000
576.09	1824.0500
576.43	1815.7500
576.77	1816.6000
577.11	1800.3000
577.45	1815.6000
577.79	1801.9000
578.13	1818.7500
578.47	1795.6000
578.81	1802.3500
579.15	1813.8000
579.49	1828.9000
579.83	1828.5500
580.17	1833.1500
580.51	1827.8500
580.85	1830.3000
581.19	1824.5500
581.53	1817.8500
581.87	1825.2000
582.20	1824.8500
582.54	1832.1500
582.88	1827.6000
583.22	1815.2500
583.56	1814.1000
583.90	1841.9500
584.24	1831.4000
584.58	1831.0500
584.92	1842.6500
585.25	1842.7000
585.59	1836.8000
585.93	1848.1000
586.27	1855.3500
586.61	1831.7000
586.95	1847.2000
587.29	1853.2000
587.62	1844.7000
587.96	1851.2500
588.30	1849.7500
588.64	1847.1000
588.98	1848.8000
589.31	1857.0000
589.65	1847.5500
589.99	1838.2500
590.33	1854.3000
590.67	1857.0500
591.01	1859.6000
591.34	1870.9000
591.68	1866.7000
592.02	1871.9000
592.36	1863.8000
592.69	1866.5500
593.03	1874.6500
593.37	1876.2500
593.71	1873.5500
594.04	1875.3000
594.38	1869.3500
594.72	1885.5000
595.06	1879.0500
595.39	1874.4000
595.73	1879.6500
596.07	1897.4000
596.41	1893.5000
596.74	1892.0500
597.08	1893.7500
597.42	1898.1000
597.76	1884.0500
598.09	1900.3500
598.43	1893.2500
598.77	1902.6000
599.10	1910.6000
599.44	1900.5500
599.78	1904.4500
600.11	1915.1000
600.45	1917.4000
600.79	1914.6500
601.12	1909.9000
