OOIBase32 Version 1.0.0.8 Data File
++++++++++++++++++++++++++++++++++++
Date: Sunday, January 20, 1980, 01:19:10
User: Valued Ocean Optics Customer
Spectrometer Serial Number: Unknown
Spectrometer Channel: Master
Integration Time (msec): 5
Spectra Averaged: 20
Boxcar Smoothing: 0
Correct for Electrical Dark: Disabled
Time Normalized: Disabled
Dual-beam Reference: Disabled
Reference Channel: Master
>>>>>Begin Spectral Data<<<<<
179.00	0.0000
179.38	0.0000
179.75	59.4500
180.13	59.9000
180.51	60.8500
180.88	61.3000
181.26	60.4500
181.64	60.3000
182.02	61.1500
182.39	61.3000
182.77	60.8000
183.15	59.9000
183.52	59.5000
183.90	60.3000
184.28	60.7000
184.65	59.7000
185.03	60.5500
185.41	60.2500
185.78	61.0000
186.16	60.5500
186.53	60.6500
186.91	60.6500
187.29	61.5000
187.66	60.7500
188.04	61.9000
188.42	62.8500
188.79	63.5000
189.17	64.7000
189.55	64.7500
189.92	64.3000
190.30	64.1000
190.67	64.7000
191.05	63.4500
191.43	64.4000
191.80	63.7500
192.18	64.9500
192.56	64.9500
192.93	64.4500
193.31	64.5000
193.68	63.9000
194.06	64.3000
194.44	64.2500
194.81	63.6000
195.19	64.2000
195.56	63.6000
195.94	63.4500
196.32	64.2000
196.69	63.8500
197.07	63.5500
197.44	64.2000
197.82	63.5500
198.19	64.8500
198.57	64.0500
198.95	65.1000
199.32	64.8000
199.70	63.5500
200.07	63.3000
200.45	64.1500
200.82	64.4000
201.20	64.1500
201.57	62.9500
201.95	64.0500
202.33	63.8500
202.70	63.4000
203.08	64.3000
203.45	65.5500
203.83	64.1000
204.20	64.6000
204.58	64.4000
204.95	64.0000
205.33	64.8000
205.70	64.6000
206.08	64.5500
206.45	64.3500
206.83	64.6000
207.20	64.4000
207.58	64.4500
207.95	65.2500
208.33	64.0500
208.70	64.5000
209.08	64.8000
209.45	63.0000
209.83	64.4000
210.20	65.0500
210.58	64.6000
210.95	64.6500
211.33	64.3500
211.70	64.4000
212.08	63.1500
212.45	64.2500
212.83	64.4000
213.20	64.9000
213.58	65.0000
213.95	65.1000
214.33	64.8000
214.70	64.7000
215.07	63.8500
215.45	63.5000
215.82	64.5500
216.20	63.3000
216.57	63.7000
216.95	65.1000
217.32	65.6500
217.70	64.8000
218.07	64.6000
218.44	64.6500
218.82	64.7000
219.19	64.3500
219.57	64.8000
219.94	64.4500
220.32	63.4000
220.69	64.3500
221.06	64.4000
221.44	64.7500
221.81	64.7500
222.19	64.9000
222.56	64.1500
222.93	63.5000
223.31	63.8500
223.68	65.6000
224.06	64.4000
224.43	65.0500
224.80	65.2500
225.18	64.4500
225.55	63.9000
225.92	64.0000
226.30	63.8000
226.67	65.2000
227.05	65.5000
227.42	63.8500
227.79	64.6000
228.17	64.4000
228.54	63.4000
228.91	65.2000
229.29	63.7000
229.66	64.8500
230.03	64.7000
230.41	65.5500
230.78	65.6500
231.15	64.4500
231.53	65.2000
231.90	65.8000
232.27	64.5500
232.65	65.5000
233.02	64.8500
233.39	64.4500
233.77	64.7000
234.14	64.9500
234.51	65.0000
234.89	64.1000
235.26	65.9500
235.63	64.4000
236.01	64.8000
236.38	64.0500
236.75	64.2000
237.12	64.3000
237.50	65.5000
237.87	65.0000
238.24	65.1000
238.62	65.6000
238.99	65.8500
239.36	64.9500
239.73	64.4500
240.11	64.4000
240.48	65.2500
240.85	65.3000
241.23	64.6000
241.60	65.7000
241.97	65.2000
242.34	66.0000
242.72	65.4500
243.09	64.7000
243.46	64.7500
243.83	64.3000
244.21	64.7500
244.58	64.9500
244.95	65.0500
245.32	65.4000
245.70	65.5500
246.07	65.6000
246.44	64.6500
246.81	65.5500
247.18	64.9000
247.56	65.9500
247.93	66.3000
248.30	65.1000
248.67	63.6500
249.04	65.1500
249.42	65.5500
249.79	65.7000
250.16	64.9000
250.53	65.9500
250.90	64.6000
251.28	64.5500
251.65	64.8000
252.02	65.1000
252.39	65.2500
252.76	65.5000
253.14	65.8000
253.51	65.1500
253.88	65.2000
254.25	64.9000
254.62	65.0000
254.99	65.3000
255.37	66.0000
255.74	64.4500
256.11	65.4500
256.48	65.4000
256.85	65.1000
257.22	65.0000
257.59	65.5000
257.97	65.0000
258.34	65.6500
258.71	66.1000
259.08	65.6500
259.45	65.7500
259.82	65.8500
260.19	65.5000
260.56	63.8500
260.94	64.8000
261.31	65.6000
261.68	64.7500
262.05	65.3000
262.42	64.3500
262.79	65.2500
263.16	66.1500
263.53	65.6500
263.90	64.9000
264.28	63.6000
264.65	64.4500
265.02	64.5500
265.39	65.5000
265.76	65.9500
266.13	65.9500
266.50	65.3500
266.87	65.2500
267.24	64.9500
267.61	65.6000
267.98	65.8000
268.35	66.1500
268.72	65.7000
269.09	65.2500
269.46	64.6500
269.84	64.9000
270.21	65.7500
270.58	66.3000
270.95	65.3000
271.32	65.4000
271.69	65.9500
272.06	65.3500
272.43	64.6500
272.80	65.7500
273.17	65.1500
273.54	66.7000
273.91	65.7000
274.28	65.9500
274.65	65.6500
275.02	65.9500
275.39	65.2000
275.76	65.9000
276.13	66.5500
276.50	66.1000
276.87	65.9500
277.24	64.5500
277.61	64.7500
277.98	66.0500
278.35	65.8000
278.72	66.1500
279.09	64.8500
279.46	66.9000
279.83	65.1500
280.20	64.9500
280.57	64.8000
280.94	66.1000
281.31	65.3000
281.67	65.0000
282.04	64.9000
282.41	66.5000
282.78	66.2500
283.15	64.8500
283.52	66.5000
283.89	66.6000
284.26	65.4500
284.63	65.9500
285.00	66.3000
285.37	65.1000
285.74	65.0500
286.11	65.8000
286.48	66.0000
286.85	66.8500
287.21	65.9500
287.58	66.4000
287.95	66.5000
288.32	65.9500
288.69	65.8000
289.06	65.3000
289.43	66.3500
289.80	65.8500
290.17	65.1500
290.54	66.0000
290.90	65.9500
291.27	65.7500
291.64	64.8000
292.01	66.1000
292.38	66.9500
292.75	65.4500
293.12	66.2000
293.48	66.0000
293.85	66.0500
294.22	66.5000
294.59	66.4000
294.96	65.1000
295.33	65.8000
295.70	65.3500
296.06	67.3000
296.43	65.4000
296.80	65.1000
297.17	65.2500
297.54	65.5000
297.91	65.5500
298.27	65.6000
298.64	66.2000
299.01	65.0500
299.38	66.7500
299.75	65.2500
300.11	65.1500
300.48	66.2000
300.85	66.2500
301.22	65.1000
301.59	66.1500
301.95	66.6500
302.32	65.5000
302.69	66.4000
303.06	66.5500
303.43	66.4000
303.79	65.3000
304.16	64.5000
304.53	65.8000
304.90	66.1500
305.26	66.0000
305.63	65.8500
306.00	65.3500
306.37	66.9000
306.73	65.6000
307.10	66.6500
307.47	65.4000
307.84	66.3000
308.20	65.1500
308.57	66.3500
308.94	65.7000
309.31	66.2000
309.67	64.8000
310.04	65.4000
310.41	65.7500
310.77	66.4000
311.14	65.7500
311.51	65.7500
311.88	66.6000
312.24	66.4500
312.61	66.6500
312.98	66.4000
313.34	66.5000
313.71	64.8500
314.08	66.5000
314.44	66.2500
314.81	66.9500
315.18	66.3500
315.55	65.5500
315.91	66.0500
316.28	66.7000
316.65	65.1000
317.01	66.2500
317.38	66.9500
317.75	67.0000
318.11	67.2000
318.48	66.5000
318.84	66.2500
319.21	66.6000
319.58	66.2000
319.94	66.9000
320.31	66.5000
320.68	67.4500
321.04	65.6500
321.41	66.8500
321.78	66.4000
322.14	65.6000
322.51	65.3500
322.87	65.3000
323.24	66.1500
323.61	67.1500
323.97	66.8500
324.34	66.0000
324.70	66.4500
325.07	66.7000
325.44	67.3500
325.80	66.6000
326.17	66.1000
326.53	66.9000
326.90	65.9500
327.27	66.8000
327.63	66.4500
328.00	65.9000
328.36	66.7500
328.73	66.1000
329.09	66.8000
329.46	66.7000
329.83	66.6500
330.19	67.3000
330.56	66.3000
330.92	66.5000
331.29	65.4000
331.65	66.5000
332.02	67.1500
332.38	66.5500
332.75	67.0000
333.11	67.2000
333.48	65.8000
333.84	67.8500
334.21	66.7000
334.58	65.9500
334.94	66.7000
335.31	67.3000
335.67	65.9000
336.04	67.1500
336.40	66.6500
336.77	67.1000
337.13	65.9500
337.50	66.0500
337.86	66.8000
338.22	67.3500
338.59	67.0000
338.95	68.1000
339.32	67.5500
339.68	66.6500
340.05	66.9500
340.41	67.4000
340.78	67.0500
341.14	66.4000
341.51	66.8000
341.87	66.5000
342.24	66.4500
342.60	67.8000
342.96	67.3000
343.33	67.0000
343.69	67.3000
344.06	68.2500
344.42	66.7000
344.79	67.2000
345.15	66.9500
345.51	67.6000
345.88	66.8000
346.24	66.8500
346.61	66.9500
346.97	67.0500
347.34	68.0500
347.70	68.1000
348.06	66.4500
348.43	67.1500
348.79	68.1500
349.16	67.1000
349.52	68.3500
349.88	67.1000
350.25	67.0500
350.61	67.5000
350.97	66.9500
351.34	67.2500
351.70	67.0000
352.07	67.3500
352.43	66.8500
352.79	67.2500
353.16	67.2500
353.52	67.0500
353.88	67.3000
354.25	68.1500
354.61	67.2000
354.97	66.0500
355.34	66.9500
355.70	69.3000
356.06	67.0500
356.43	67.9500
356.79	67.6500
357.15	67.8500
357.52	67.2500
357.88	67.8000
358.24	67.3000
358.60	67.2000
358.97	66.9000
359.33	67.9000
359.69	68.1500
360.06	68.1500
360.42	67.8000
360.78	67.3000
361.14	66.8000
361.51	67.2500
361.87	68.4000
362.23	66.9500
362.60	67.4000
362.96	67.3000
363.32	68.3500
363.68	68.3500
364.05	67.5500
364.41	68.0500
364.77	67.4000
365.13	67.4000
365.50	67.1500
365.86	68.2500
366.22	67.3500
366.58	68.4500
366.95	68.3500
367.31	69.4000
367.67	67.8000
368.03	68.6500
368.39	68.3000
368.76	68.1000
369.12	67.7000
369.48	66.5500
369.84	68.4000
370.20	68.8000
370.57	67.5500
370.93	69.3000
371.29	68.3500
371.65	68.9500
372.01	68.4500
372.38	68.6000
372.74	68.3500
373.10	69.7000
373.46	69.6000
373.82	68.7000
374.18	70.1000
374.55	68.8000
374.91	69.2500
375.27	69.2000
375.63	70.4000
375.99	70.1000
376.35	69.3500
376.71	69.5500
377.08	70.8000
377.44	71.2000
377.80	70.0000
378.16	71.2000
378.52	70.8500
378.88	72.0500
379.24	71.6000
379.60	72.2500
379.97	73.5000
380.33	73.1000
380.69	74.1500
381.05	74.9000
381.41	75.0500
381.77	75.2000
382.13	77.5000
382.49	77.7500
382.85	77.1000
383.21	79.1000
383.57	78.1000
383.94	81.1000
384.30	81.0500
384.66	83.8000
385.02	82.2500
385.38	82.5000
385.74	83.4500
386.10	84.6500
386.46	85.8500
386.82	87.2500
387.18	87.6500
387.54	89.0500
387.90	88.7000
388.26	91.0000
388.62	92.5000
388.98	91.1000
389.34	93.2500
389.70	93.3000
390.06	92.3000
390.42	94.1500
390.78	97.9000
391.14	98.2000
391.50	97.4500
391.86	99.5000
392.22	101.6500
392.58	100.3500
392.94	97.0500
393.30	100.9500
393.66	103.2000
394.02	105.0000
394.38	101.8000
394.74	105.3000
395.10	103.8500
395.46	107.6500
395.82	106.4500
396.18	106.8500
396.54	111.2000
396.90	113.6500
397.26	111.7000
397.62	112.1000
397.98	116.2500
398.34	112.3000
398.70	114.5500
399.05	111.8000
399.41	112.4000
399.77	115.4500
400.13	119.2500
400.49	120.9500
400.85	123.0000
401.21	118.4000
401.57	125.8500
401.93	124.6500
402.29	123.3500
402.65	124.5000
403.00	128.3500
403.36	130.9500
403.72	128.1000
404.08	136.5000
404.44	129.3000
404.80	132.9000
405.16	136.4000
405.52	140.2000
405.87	140.8500
406.23	142.6000
406.59	135.6500
406.95	136.5500
407.31	139.8000
407.67	141.3000
408.03	141.8000
408.38	147.1500
408.74	152.5500
409.10	153.1500
409.46	147.6500
409.82	153.1500
410.17	150.5000
410.53	147.2500
410.89	154.6500
411.25	144.4500
411.61	152.3500
411.97	161.5500
412.32	157.4500
412.68	162.4500
413.04	159.0000
413.40	146.3500
413.75	156.8000
414.11	163.5500
414.47	162.6000
414.83	170.3500
415.19	167.3500
415.54	159.7000
415.90	167.8000
416.26	167.9500
416.62	173.8000
416.97	164.8500
417.33	174.6000
417.69	175.1500
418.05	174.5000
418.40	167.8000
418.76	176.8000
419.12	185.1500
419.48	180.6500
419.83	191.5500
420.19	172.8000
420.55	176.9000
420.90	194.5500
421.26	185.9500
421.62	183.8000
421.98	194.8000
422.33	199.3000
422.69	202.8000
423.05	207.9000
423.40	188.9500
423.76	185.5500
424.12	202.5000
424.47	203.2000
424.83	203.6000
425.19	203.9000
425.54	199.4000
425.90	209.2500
426.26	218.2000
426.61	220.4500
426.97	194.1500
427.33	216.3000
427.68	217.4500
428.04	226.7000
428.40	238.7000
428.75	243.7500
429.11	224.5000
429.47	244.8000
429.82	242.1000
430.18	243.9500
430.53	235.5500
430.89	235.9500
431.25	243.4000
431.60	249.0500
431.96	246.3000
432.31	241.7000
432.67	256.3000
433.03	261.7000
433.38	253.5000
433.74	261.3000
434.09	258.5000
434.45	249.4000
434.81	249.5500
435.16	266.1500
435.52	252.4000
435.87	242.7000
436.23	249.5500
436.58	253.1500
436.94	270.0500
437.30	268.5500
437.65	283.5000
438.01	272.5500
438.36	280.5500
438.72	279.7000
439.07	271.7500
439.43	276.1000
439.78	294.9000
440.14	305.9500
440.49	282.7500
440.85	282.7500
441.20	297.9500
441.56	290.9500
441.91	317.2500
442.27	298.3000
442.62	296.6500
442.98	305.7000
443.33	301.3000
443.69	304.0000
444.04	300.7500
444.40	291.5500
444.75	319.0500
445.11	318.1500
445.46	328.4000
445.82	326.4000
446.17	308.4000
446.53	328.7000
446.88	358.7000
447.23	307.6000
447.59	310.9500
447.94	306.8500
448.30	333.7000
448.65	325.9500
449.01	343.7000
449.36	341.0000
449.72	369.6000
450.07	380.3000
450.42	371.0500
450.78	354.1500
451.13	370.7500
451.49	355.8500
451.84	347.0000
452.19	352.8500
452.55	374.8000
452.90	373.8000
453.26	395.5000
453.61	410.8000
453.96	354.3500
454.32	392.2000
454.67	394.8000
455.02	370.6500
455.38	384.2500
455.73	383.4000
456.09	412.6000
456.44	412.3000
456.79	408.1500
457.15	409.8500
457.50	389.3000
457.85	407.3000
458.21	400.0500
458.56	421.6500
458.91	413.5000
459.27	393.8000
459.62	406.4500
459.97	411.3500
460.32	424.4000
460.68	426.1500
461.03	425.7000
461.38	437.4500
461.74	476.9000
462.09	460.6000
462.44	441.8000
462.80	432.1000
463.15	441.0000
463.50	442.8000
463.85	475.3000
464.21	456.2500
464.56	480.6500
464.91	454.5500
465.26	468.5500
465.62	465.0500
465.97	498.3000
466.32	496.4500
466.67	497.3000
467.03	501.3000
467.38	509.6500
467.73	519.3500
468.08	528.8000
468.44	532.5000
468.79	534.1500
469.14	505.8500
469.49	534.1500
469.85	552.1000
470.20	598.3000
470.55	596.0000
470.90	601.6000
471.25	576.0000
471.61	595.6000
471.96	601.5500
472.31	614.4500
472.66	617.9000
473.01	637.7000
473.36	651.7000
473.72	642.5500
474.07	669.4000
474.42	674.0000
474.77	674.8000
475.12	692.3000
475.47	714.7000
475.83	721.5000
476.18	717.3000
476.53	716.1500
476.88	750.9000
477.23	756.3500
477.58	751.2500
477.93	768.4000
478.28	762.7500
478.64	782.0500
478.99	800.9000
479.34	812.6000
479.69	829.2500
480.04	849.4000
480.39	853.4500
480.74	839.5500
481.09	889.2000
481.44	892.2000
481.79	888.5000
482.15	896.2500
482.50	915.8500
482.85	918.0000
483.20	945.7500
483.55	944.1000
483.90	961.2500
484.25	960.6000
484.60	961.0000
484.95	982.6500
485.30	990.9000
485.65	1007.0500
486.00	1018.8000
486.35	1006.2000
486.70	1018.3500
487.05	1051.4500
487.40	1050.7500
487.75	1064.5500
488.10	1071.9500
488.45	1065.5000
488.80	1077.4500
489.15	1105.5000
489.50	1102.2500
489.85	1112.8500
490.20	1113.7500
490.55	1130.2000
490.90	1134.9500
491.25	1146.0500
491.60	1141.9500
491.95	1142.9000
492.30	1158.5500
492.65	1172.2000
493.00	1173.7500
493.35	1174.4000
493.70	1189.8000
494.05	1201.9500
494.40	1220.7000
494.75	1218.1500
495.10	1218.1000
495.45	1217.8500
495.80	1229.7500
496.15	1242.1000
496.50	1234.3000
496.84	1242.5500
497.19	1245.9500
497.54	1262.5500
497.89	1264.8000
498.24	1268.8000
498.59	1283.7000
498.94	1275.5500
499.29	1286.0000
499.64	1287.0000
499.99	1301.2000
500.33	1312.8000
500.68	1309.9500
501.03	1317.4000
501.38	1325.9500
501.73	1341.1000
502.08	1334.0000
502.43	1347.8500
502.77	1352.5500
503.12	1370.2500
503.47	1367.8000
503.82	1380.4500
504.17	1388.0000
504.52	1397.1500
504.86	1405.7500
505.21	1424.3500
505.56	1419.6500
505.91	1425.7000
506.26	1424.4500
506.61	1445.7000
506.95	1449.0500
507.30	1455.6500
507.65	1472.9500
508.00	1471.6500
508.35	1476.5500
508.69	1478.8500
509.04	1500.6000
509.39	1495.3500
509.74	1501.3500
510.08	1514.6000
510.43	1528.6500
510.78	1531.6000
511.13	1536.6500
511.47	1548.1000
511.82	1560.7500
512.17	1557.2000
512.52	1578.4500
512.86	1585.3000
513.21	1597.7000
513.56	1605.9500
513.91	1624.0000
514.25	1621.8000
514.60	1634.6000
514.95	1635.5000
515.30	1646.5500
515.64	1649.5500
515.99	1669.6000
516.34	1677.0500
516.68	1690.5000
517.03	1696.4500
517.38	1695.6000
517.72	1727.3000
518.07	1721.0500
518.42	1729.1000
518.76	1742.1500
519.11	1750.7500
519.46	1766.2500
519.80	1759.2000
520.15	1767.3500
520.50	1785.2000
520.84	1787.0000
521.19	1795.2000
521.54	1809.5000
521.88	1808.1000
522.23	1824.7500
522.58	1817.5500
522.92	1829.7500
523.27	1839.4500
523.61	1844.4500
523.96	1845.4000
524.31	1873.5000
524.65	1882.0000
525.00	1876.1500
525.34	1861.0500
525.69	1868.2000
526.04	1894.8500
526.38	1899.4500
526.73	1898.6000
527.07	1917.7500
527.42	1911.1000
527.76	1928.5500
528.11	1937.8500
528.46	1933.3000
528.80	1930.5000
529.15	1919.1000
529.49	1923.2500
529.84	1941.5500
530.18	1943.4500
530.53	1969.3000
530.87	1961.9500
531.22	1962.6000
531.56	1966.7500
531.91	1967.8000
532.25	1967.8500
532.60	1966.1500
532.94	1981.5500
533.29	1978.0000
533.63	1978.5500
533.98	1975.1500
534.32	1989.9500
534.67	2010.8500
535.01	2016.1500
535.36	2003.7500
535.70	2028.4000
536.05	2026.2000
536.39	2043.8000
536.74	2020.6500
537.08	2012.9000
537.43	2010.3500
537.77	2034.9500
538.12	2049.7000
538.46	2051.6001
538.80	2067.8999
539.15	2048.7000
539.49	2057.0500
539.84	2080.0000
540.18	2077.8999
540.53	2079.8999
540.87	2076.1499
541.21	2096.0000
541.56	2096.3000
541.90	2113.6001
542.25	2099.6001
542.59	2099.3999
542.93	2123.3000
543.28	2106.3999
543.62	2117.8501
543.97	2127.5000
544.31	2132.7000
544.65	2133.4500
545.00	2146.6001
545.34	2151.5000
545.68	2149.5500
546.03	2148.7500
546.37	2173.7000
546.71	2173.2500
547.06	2181.3000
547.40	2179.3501
547.74	2207.0500
548.09	2192.2500
548.43	2196.3000
548.77	2205.3999
549.12	2210.9500
549.46	2205.3999
549.80	2223.4500
550.15	2238.8999
550.49	2239.6001
550.83	2237.7500
551.17	2255.7000
551.52	2249.6499
551.86	2249.6001
552.20	2268.0500
552.55	2277.8999
552.89	2283.3000
553.23	2291.4500
553.57	2299.6499
553.92	2298.0500
554.26	2315.2500
554.60	2299.0500
554.94	2311.1499
555.29	2324.1001
555.63	2328.2000
555.97	2353.2500
556.31	2347.8501
556.66	2359.4500
557.00	2347.1499
557.34	2365.8000
557.68	2381.0000
558.02	2374.8000
558.37	2384.6499
558.71	2386.6499
559.05	2392.0000
559.39	2400.2500
559.73	2414.7500
560.08	2408.6001
560.42	2420.9500
560.76	2427.3000
561.10	2430.3501
561.44	2424.6499
561.78	2444.5500
562.13	2451.6001
562.47	2436.5500
562.81	2463.8501
563.15	2464.7500
563.49	2461.8501
563.83	2486.9500
564.17	2481.3999
564.52	2479.7500
564.86	2488.8000
565.20	2493.6001
565.54	2490.7500
565.88	2485.8000
566.22	2506.8999
566.56	2490.3501
566.90	2513.3000
567.24	2523.6499
567.59	2509.3999
567.93	2520.0000
568.27	2530.7000
568.61	2545.8501
568.95	2527.8999
569.29	2531.8999
569.63	2557.7500
569.97	2547.6001
570.31	2516.7000
570.65	2534.3501
570.99	2545.0000
571.33	2559.8501
571.67	2543.7500
572.01	2550.5000
572.35	2560.6499
572.69	2575.3501
573.03	2582.0500
573.37	2570.3000
573.71	2562.6499
574.05	2552.1499
574.39	2561.2500
574.73	2584.1499
575.07	2563.5000
575.41	2565.1499
575.75	2581.8999
576.09	2599.1499
576.43	2588.7000
576.77	2586.7500
577.11	2576.2000
577.45	2585.3501
577.79	2578.2000
578.13	2596.8000
578.47	2564.7000
578.81	2573.3501
579.15	2584.6499
579.49	2614.3501
579.83	2604.1001
580.17	2617.1001
580.51	2606.5000
580.85	2607.5500
581.19	2606.3999
581.53	2593.3000
581.87	2598.7500
582.20	2606.3501
582.54	2610.8501
582.88	2606.7000
583.22	2594.7500
583.56	2583.7000
583.90	2613.2500
584.24	2611.4500
584.58	2603.1001
584.92	2625.0500
585.25	2620.6499
585.59	2618.0000
585.93	2625.5000
586.27	2641.1499
586.61	2607.8999
586.95	2632.1001
587.29	2647.8000
587.62	2616.6499
587.96	2634.2500
588.30	2637.7500
588.64	2631.3501
588.98	2633.5500
589.31	2642.8501
589.65	2635.9500
589.99	2618.3501
590.33	2642.6499
590.67	2648.1499
591.01	2645.0000
591.34	2656.3999
591.68	2657.7000
592.02	2663.5500
592.36	2653.7000
592.69	2653.7500
593.03	2665.3501
593.37	2669.6499
593.71	2669.3000
594.04	2662.9500
594.38	2664.2500
594.72	2685.3501
595.06	2675.5500
595.39	2669.4500
595.73	2680.8000
596.07	2701.2500
596.41	2693.7500
596.74	2690.3501
